File: app/XRD_data_set_lit.txt
5.000	1.00
5.180	1.00
5.360	1.00
5.540	1.00
5.720	1.00
5.900	1.00
6.080	1.00
6.260	1.00
6.440	1.00
6.620	1.00
6.800	1.00
6.980	1.00
7.160	1.00
7.340	1.00
7.520	1.00
7.700	1.00
7.880	1.00
8.060	1.00
8.240	1.00
8.420	1.00
8.600	15.80
8.780	608.33
8.960	34.23
9.140	1.00
9.320	1.00
9.500	1.00
9.680	1.00
9.860	1.00
10.040	1.00
10.220	1.00
10.400	1.00
10.580	22.32
10.760	239.96
10.940	275.39
11.120	29.98
11.300	1.00
11.480	1.00
11.660	1.00
11.840	1.00
12.020	1.00
12.200	102.80
12.380	2545.57
12.560	6058.65
12.740	107.95
12.920	1.00
13.100	1.00
13.280	1.00
13.460	1.00
13.640	1.00
13.820	1.00
14.000	1.00
14.180	1.00
14.360	1.00
14.540	1.00
14.720	1.00
14.900	1.00
15.080	1.00
15.260	1.00
15.440	1.00
15.620	1.00
15.800	1.00
15.980	1.00
16.160	1.00
16.340	225.80
16.520	9987.82
16.700	708.83
16.880	62.78
17.060	1.00
17.240	1.00
17.420	47.82
17.600	490.00
17.780	2870.52
17.960	226.62
18.140	1.00
18.320	1.00
18.500	1.00
18.680	1.00
18.860	1.00
19.040	1.00
19.220	1.00
19.400	1.00
19.580	41.68
19.760	395.76
19.940	393.59
20.120	41.02
20.300	1.00
20.480	58.31
20.660	722.01
20.840	400.72
21.020	48.28
21.200	1.00
21.380	1.00
21.560	46.88
21.740	774.13
21.920	399.73
22.100	42.56
22.280	1.00
22.460	1.00
22.640	1.00
22.820	1.00
23.000	1.00
23.180	1.00
23.360	1.00
23.540	1.00
23.720	1.00
23.900	1.00
24.080	60.82
24.260	1124.56
24.440	524.52
24.620	46.56
24.800	5.28
24.980	204.07
25.160	254.21
25.340	38.70
25.520	7.71
25.700	1.00
25.880	1.00
26.060	1.00
26.240	1.00
26.420	3.82
26.600	46.35
26.780	78.37
26.960	4.99
27.140	157.71
27.320	8539.53
27.500	5739.77
27.680	2371.96
27.860	399.50
28.040	11750.47
28.220	11935.40
28.400	288.27
28.580	1.00
28.760	1.00
28.940	1.00
29.120	1.00
29.300	1.00
29.480	1.00
29.660	1.00
29.840	1.00
30.020	1.00
30.200	351.90
30.380	17059.98
30.560	590.36
30.740	80.80
30.920	37.47
31.100	10.82
31.280	1.37
31.460	1.00
31.640	1.00
31.820	1.26
32.000	36.27
32.180	210.11
32.360	752.11
32.540	146.89
32.720	2229.32
32.900	4810.88
33.080	603.30
33.260	110.66
33.440	1043.25
33.620	627.37
33.800	31.83
33.980	1.00
34.160	1.00
34.340	1.00
34.520	1.00
34.700	1.00
34.880	43.40
35.060	402.52
35.240	528.01
35.420	2937.83
35.600	90.37
35.780	819.25
35.960	59.26
36.140	181.36
36.320	7.31
36.500	1.00
36.680	29.29
36.860	598.97
37.040	889.39
37.220	276.22
37.400	40.71
37.580	1543.87
37.760	326.26
37.940	47.93
38.120	23.87
38.300	208.77
38.480	9.54
38.660	2.22
38.840	1.00
39.020	1.00
39.200	3.16
39.380	9.76
39.560	381.46
39.740	8.43
39.920	3.95
40.100	13.81
40.280	112.54
40.460	26.10
40.640	2.08
40.820	1.13
41.000	1.43
41.180	57.58
41.360	2051.72
41.540	587.06
41.720	162.62
41.900	648.59
42.080	67.25
42.260	43.16
42.440	31.50
42.620	2.31
42.800	1.28
42.980	1.00
43.160	1.00
43.340	1.85
43.520	12.47
43.700	105.77
43.880	846.51
44.060	63.65
44.240	117.04
44.420	364.96
44.600	45.52
44.780	6.44
44.960	41.91
45.140	261.99
45.320	161.50
45.500	94.75
45.680	35.75
45.860	1099.21
46.040	970.75
46.220	329.82
46.400	272.69
46.580	15.99
46.760	2.01
46.940	1.00
47.120	4.07
47.300	34.79
47.480	163.62
47.660	48.74
47.840	306.59
48.020	34.34
48.200	6.74
48.380	1.26
48.560	7.01
48.740	190.67
48.920	138.73
49.100	581.38
49.280	111.35
49.460	1210.39
49.640	504.36
49.820	97.25
50.000	30.69
50.180	3.08
50.360	1.00
50.540	1.00
50.720	10.27
50.900	37.50
51.080	1583.36
51.260	569.03
51.440	440.96
51.620	181.67
51.800	1869.39
51.980	62.86
52.160	24.87
52.340	43.36
52.520	447.97
52.700	229.56
52.880	78.77
53.060	1462.36
53.240	608.00
53.420	809.56
53.600	912.24
53.780	27.69
53.960	6.80
54.140	7.24
54.320	28.24
54.500	672.56
54.680	52.49
54.860	308.43
55.000	354.51